Wavelength, W/m2 
346.47,1.447376717
346.85,0.150112788
347.23,0.150891475
347.611,0.058159252
347.991,0.094738083
348.371,0.067880322
348.751,0.03716945
349.131,0.044472988
349.511,0.05332599
349.891,0.055506986
350.27,0.043160374
350.65,0.052277597
351.03,0.039964588
351.41,0.035384611
351.79,0.046871355
352.169,0.050275406
352.549,0.0581825
352.928,0.055270876
353.308,0.050880343
353.687,0.051183645
354.067,0.047810284
3.54E+02,0.051278664
3.55E+02,0.034901827
3.55E+02,0.067147471
3.56E+02,0.053265165
3.56E+02,0.054187857
3.56E+02,0.053151236
3.57E+02,0.037436889
3.57E+02,0.041044113
3.57E+02,0.043406052
3.58E+02,0.051047155
3.58E+02,0.04804743
3.59E+02,0.039189923
3.59E+02,0.039684366
3.59E+02,0.04944473
3.60E+02,0.051173519
3.60E+02,0.036259144
3.61E+02,0.037326875
3.61E+02,0.041661412
3.61E+02,0.035186928
3.62E+02,0.038411871
3.62E+02,0.038528689
3.62E+02,0.038503985
3.63E+02,0.035832536
3.63E+02,0.037217
3.64E+02,0.033792128
3.64E+02,0.040717335
3.64E+02,0.04693121
3.65E+02,0.040239215
3.65E+02,0.029928814
3.65E+02,0.032780359
3.66E+02,0.030064325
3.66E+02,0.036005392
3.67E+02,0.03607872
3.67E+02,0.030655609
3.67E+02,0.035167212
3.68E+02,0.036135543
3.68E+02,0.034760298
3.68E+02,0.038475505
3.69E+02,0.029687276
3.69E+02,0.033326565
3.70E+02,0.039892752
3.70E+02,0.03510918
3.70E+02,0.036302743
3.71E+02,0.042643559
3.71E+02,0.03078796
3.71E+02,0.033865886
3.72E+02,0.03697271
3.72E+02,0.032655929
3.73E+02,0.032281946
3.73E+02,0.037882803
3.73E+02,0.029815211
3.74E+02,0.03191953
3.74E+02,0.029916565
3.74E+02,0.02745952
3.75E+02,0.031662203
3.75E+02,0.038662907
3.76E+02,0.030439692
3.76E+02,0.032847029
3.76E+02,0.028173801
3.77E+02,0.033674705
3.77E+02,0.029673146
3.78E+02,0.030844842
3.78E+02,0.028329874
3.78E+02,0.025716125
3.79E+02,0.031479256
3.79E+02,0.026271096
3.79E+02,0.032473365
3.80E+02,0.028987868
3.80E+02,0.023595133
3.81E+02,0.030608979
3.81E+02,0.02791402
3.81E+02,0.028534874
3.82E+02,0.020243496
3.82E+02,0.019615087
3.82E+02,0.018333007
3.83E+02,0.017793054
3.83E+02,0.027156139
3.84E+02,0.025220061
3.84E+02,0.028116718
3.84E+02,0.027699996
3.85E+02,0.027283365
3.85E+02,0.023861761
3.85E+02,0.028562951
3.86E+02,0.023911151
3.86E+02,0.025057078
3.87E+02,0.030001737
3.87E+02,0.021741465
3.87E+02,0.021743363
3.88E+02,0.021196694
3.88E+02,0.021856785
3.88E+02,0.020813363
3.89E+02,0.01878605
3.89E+02,0.017465837
3.90E+02,0.017466335
3.90E+02,0.018660633
3.90E+02,0.024154556
3.91E+02,0.019898094
3.91E+02,0.019213921
3.91E+02,0.019001326
3.92E+02,0.02119552
3.92E+02,0.019162707
3.93E+02,0.021325311
3.93E+02,0.019730731
3.93E+02,0.019660194
3.94E+02,0.021860354
3.94E+02,0.019153469
3.94E+02,0.021451133
3.95E+02,0.017225584
3.95E+02,0.018016854
3.96E+02,0.017649231
3.96E+02,0.017095714
3.96E+02,0.020596862
3.97E+02,0.016769662
3.97E+02,0.016462959
3.97E+02,0.015136366
3.98E+02,0.016946867
3.98E+02,0.015580742
3.99E+02,0.016581607
3.99E+02,0.016606499
3.99E+02,0.016282104
4.00E+02,0.017028175
4.00E+02,0.017546342
4.00E+02,0.019647098
4.01E+02,0.013350433
4.01E+02,0.016734802
4.02E+02,0.018661228
4.02E+02,0.014507425
4.02E+02,0.015939547
4.03E+02,0.019916081
4.03E+02,0.019517026
4.03E+02,0.025520518
4.04E+02,0.039654904
4.04E+02,0.044153242
4.05E+02,0.022828361
4.05E+02,0.016021301
4.05E+02,0.017035004
4.06E+02,0.015025405
4.06E+02,0.01786497
4.06E+02,0.01460258
4.07E+02,0.017950069
4.07E+02,0.019020433
4.08E+02,0.018440852
4.08E+02,0.018397333
4.08E+02,0.017634396
4.09E+02,0.014176464
4.09E+02,0.016654043
4.09E+02,0.015308352
4.10E+02,0.015533389
4.10E+02,0.011900066
4.11E+02,0.013843008
4.11E+02,0.015611177
4.11E+02,0.014344532
4.12E+02,0.015059619
4.12E+02,0.012978134
4.12E+02,0.01800256
4.13E+02,0.015325069
4.13E+02,0.011988232
4.14E+02,0.014284051
4.14E+02,0.032219262
4.14E+02,0.013513154
4.15E+02,0.015515291
4.15E+02,0.013648211
4.15E+02,0.015498454
4.16E+02,0.015783514
4.16E+02,0.01283289
4.17E+02,0.015428214
4.17E+02,0.011923251
4.17E+02,0.014386064
4.18E+02,0.013404229
4.18E+02,0.013096596
4.18E+02,0.012263039
4.19E+02,0.013360779
4.19E+02,0.012276948
4.19E+02,0.014970347
4.20E+02,0.013788561
4.20E+02,0.01486299
4.21E+02,0.014055336
4.21E+02,0.015588678
4.21E+02,0.014438497
4.22E+02,0.013255302
4.22E+02,0.011722941
4.22E+02,0.01498294
4.23E+02,0.012267968
4.23E+02,0.014943905
4.24E+02,0.013273333
4.24E+02,0.013387948
4.24E+02,0.017082166
4.25E+02,0.01262512
4.25E+02,0.012641755
4.25E+02,0.01283162
4.26E+02,0.016174014
4.26E+02,0.01356166
4.27E+02,0.013318149
4.27E+02,0.014793247
4.27E+02,0.014887638
4.28E+02,0.012506936
4.28E+02,0.013778808
4.28E+02,0.013778173
4.29E+02,0.012794095
4.29E+02,0.013485699
4.30E+02,0.014080338
4.30E+02,0.015005729
4.30E+02,0.012885578
4.31E+02,0.014123554
4.31E+02,0.014475307
4.31E+02,0.014844649
4.32E+02,0.015252912
4.32E+02,0.011742772
4.32E+02,0.018724883
4.33E+02,0.014576515
4.33E+02,0.014728696
4.34E+02,0.014095268
4.34E+02,0.015427623
4.34E+02,0.016897365
4.35E+02,0.056988736
4.35E+02,0.083850903
4.35E+02,0.077119827
4.36E+02,0.03615977
4.36E+02,0.018158711
4.37E+02,0.013307538
4.37E+02,0.011450415
4.37E+02,0.011202792
4.38E+02,0.013236821
4.38E+02,0.013465028
4.38E+02,0.012230361
4.39E+02,0.012806577
4.39E+02,0.012698784
4.40E+02,0.010802202
4.40E+02,0.010929673
4.40E+02,0.011670335
4.41E+02,0.010890996
4.41E+02,0.012440325
4.41E+02,0.011675916
4.42E+02,0.012944066
4.42E+02,0.01238723
4.42E+02,0.01304032
4.43E+02,0.012429103
4.43E+02,0.010276009
4.44E+02,0.011833395
4.44E+02,0.013892449
4.44E+02,0.013805881
4.45E+02,0.01424797
4.45E+02,0.011943934
4.45E+02,0.012312904
4.46E+02,0.010364225
4.46E+02,0.011757959
4.47E+02,0.009908056
4.47E+02,0.013488666
4.47E+02,0.013309964
4.48E+02,0.012475803
4.48E+02,0.01318714
4.48E+02,0.012506955
4.49E+02,0.012979894
4.49E+02,0.012717054
4.50E+02,0.012389148
4.50E+02,0.010705444
4.50E+02,0.012670806
4.51E+02,0.011426856
4.51E+02,0.012456271
4.51E+02,0.01171666
4.52E+02,0.013375
4.52E+02,0.013860095
4.52E+02,0.01240447
4.53E+02,0.011747971
4.53E+02,0.011369858
4.54E+02,0.012846451
4.54E+02,0.012253768
4.54E+02,0.013747872
4.55E+02,0.013002535
4.55E+02,0.012080773
4.55E+02,0.009780259
4.56E+02,0.013165712
4.56E+02,0.012803992
4.57E+02,0.01241656
4.57E+02,0.013587767
4.57E+02,0.01130733
4.58E+02,0.011889834
4.58E+02,0.012521895
4.58E+02,0.010409478
4.59E+02,0.011768838
4.59E+02,0.013730302
4.59E+02,0.013543645
4.60E+02,0.01053263
4.60E+02,0.012007355
4.61E+02,0.012385808
4.61E+02,0.012034953
4.61E+02,0.012465763
4.62E+02,0.009435361
4.62E+02,0.012193865
4.62E+02,0.010932973
4.63E+02,0.011166834
4.63E+02,0.011066379
4.63E+02,0.011374743
4.64E+02,0.010841678
4.64E+02,0.012619307
4.65E+02,0.011550898
4.65E+02,0.011496757
4.65E+02,0.012733847
4.66E+02,0.011802164
4.66E+02,0.014810253
4.66E+02,0.012360875
4.67E+02,0.012064852
4.67E+02,0.012270095
4.68E+02,0.012644721
4.68E+02,0.010355408
4.68E+02,0.011090647
4.69E+02,0.011278458
4.69E+02,0.011230616
4.69E+02,0.013581407
4.70E+02,0.012304563
4.70E+02,0.011519647
4.70E+02,0.013006016
4.71E+02,0.010453143
4.71E+02,0.010158214
4.72E+02,0.011272114
4.72E+02,0.010270152
4.72E+02,0.01154817
4.73E+02,0.008318763
4.73E+02,0.011234757
4.73E+02,0.011836878
4.74E+02,0.012546545
4.74E+02,0.01244876
4.74E+02,0.013786759
4.75E+02,0.012034938
4.75E+02,0.011065588
4.76E+02,0.011467801
4.76E+02,0.011810881
4.76E+02,0.010688221
4.77E+02,0.010133391
4.77E+02,0.01257299
4.77E+02,0.009821011
4.78E+02,0.011797066
4.78E+02,0.010899234
4.79E+02,0.012744518
4.79E+02,0.012543576
4.79E+02,0.012435275
4.80E+02,0.010834754
4.80E+02,0.013027002
4.80E+02,0.012487874
4.81E+02,0.012446429
4.81E+02,0.011946173
4.81E+02,0.011606291
4.82E+02,0.0127888
4.82E+02,0.01117433
4.83E+02,0.012467079
4.83E+02,0.012168046
4.83E+02,0.013349282
4.84E+02,0.013577446
4.84E+02,0.012463402
4.84E+02,0.014745566
4.85E+02,0.014697247
4.85E+02,0.014936831
4.85E+02,0.014993953
4.86E+02,0.016220101
4.86E+02,0.015921441
4.87E+02,0.015254269
4.87E+02,0.015584317
4.87E+02,0.017666691
4.88E+02,0.016705576
4.88E+02,0.015932007
4.88E+02,0.017264311
4.89E+02,0.016946812
4.89E+02,0.017106561
4.89E+02,0.016864835
4.90E+02,0.017812696
4.90E+02,0.018199652
4.91E+02,0.018805959
4.91E+02,0.01803583
4.91E+02,0.019510102
4.92E+02,0.018502702
4.92E+02,0.020227412
4.92E+02,0.022670111
4.93E+02,0.020779423
4.93E+02,0.022450746
4.93E+02,0.021784457
4.94E+02,0.022209685
4.94E+02,0.022136581
4.95E+02,0.022466859
4.95E+02,0.024874207
4.95E+02,0.025259447
4.96E+02,0.0253214
4.96E+02,0.025169202
4.96E+02,0.027753956
4.97E+02,0.029261123
4.97E+02,0.029424669
4.97E+02,0.029307114
4.98E+02,0.031050871
4.98E+02,0.032090244
4.99E+02,0.03177711
4.99E+02,0.032623001
4.99E+02,0.035226431
5.00E+02,0.036314674
5.00E+02,0.036659567
5.00E+02,0.038100473
5.01E+02,0.040544873
5.01E+02,0.040908569
5.01E+02,0.043169132
5.02E+02,0.044287884
5.02E+02,0.04359429
5.03E+02,0.04650064
5.03E+02,0.049930255
5.03E+02,0.049708857
5.04E+02,0.052144379
5.04E+02,0.05334601
5.04E+02,0.053460193
5.05E+02,0.056725784
5.05E+02,0.058527293
5.05E+02,0.059916035
5.06E+02,0.061500959
5.06E+02,0.064981045
5.07E+02,0.064407405
5.07E+02,0.070150969
5.07E+02,0.070883436
5.08E+02,0.071506702
5.08E+02,0.07138425
5.08E+02,0.07700894
5.09E+02,0.077456639
5.09E+02,0.078100982
5.09E+02,0.082863574
5.10E+02,0.083045823
5.10E+02,0.083129889
5.11E+02,0.088437813
5.11E+02,0.088523282
5.11E+02,0.088177136
5.12E+02,0.090127186
5.12E+02,0.093494624
5.12E+02,0.090181709
5.13E+02,0.094835336
5.13E+02,0.095643519
5.13E+02,0.096664356
5.14E+02,0.100676989
5.14E+02,0.097517796
5.15E+02,0.099749038
5.15E+02,0.10148005
5.15E+02,0.104856954
5.16E+02,0.102032947
5.16E+02,0.102315343
5.16E+02,0.104026692
5.17E+02,0.102277451
5.17E+02,0.10176813
5.17E+02,0.101282651
5.18E+02,0.100970465
5.18E+02,0.100612187
5.18E+02,0.09835564
5.19E+02,0.098497066
5.19E+02,0.099373904
5.20E+02,0.098275966
5.20E+02,0.095517515
5.20E+02,0.091902366
5.21E+02,0.095200197
5.21E+02,0.093848864
5.21E+02,0.090794119
5.22E+02,0.090913492
5.22E+02,0.088574539
5.22E+02,0.088945371
5.23E+02,0.086188552
5.23E+02,0.086755879
5.24E+02,0.083149098
5.24E+02,0.084982724
5.24E+02,0.080434455
5.25E+02,0.079625334
5.25E+02,0.078777014
5.25E+02,0.0755826
5.26E+02,0.076663214
5.26E+02,0.075314023
5.26E+02,0.075872306
5.27E+02,0.071309131
5.27E+02,0.069804168
5.27E+02,0.068225941
5.28E+02,0.068664039
5.28E+02,0.066454322
5.29E+02,0.067213694
5.29E+02,0.063716023
5.29E+02,0.06255806
5.30E+02,0.062497087
5.30E+02,0.061881157
5.30E+02,0.061767988
5.31E+02,0.059296717
5.31E+02,0.060230858
5.31E+02,0.057185715
5.32E+02,0.057606879
5.32E+02,0.057542157
5.33E+02,0.054999915
5.33E+02,0.054686946
5.33E+02,0.053947671
5.34E+02,0.052323313
5.34E+02,0.051081093
5.34E+02,0.052011617
5.35E+02,0.05163983
5.35E+02,0.051022546
5.35E+02,0.048769657
5.36E+02,0.048591369
5.36E+02,0.046365388
5.36E+02,0.046661257
5.37E+02,0.047584571
5.37E+02,0.045997537
5.38E+02,0.043826214
5.38E+02,0.04450752
5.38E+02,0.044495845
5.39E+02,0.044301885
5.39E+02,0.043435603
5.39E+02,0.04384867
5.40E+02,0.042837748
5.40E+02,0.042702659
5.40E+02,0.04261373
5.41E+02,0.041906667
5.41E+02,0.045093413
5.41E+02,0.043900829
5.42E+02,0.042570562
5.42E+02,0.042801297
5.43E+02,0.040760855
5.43E+02,0.037960846
5.43E+02,0.037713026
5.44E+02,0.040020276
5.44E+02,0.037097397
5.44E+02,0.038177207
5.45E+02,0.051549139
5.45E+02,0.066621979
5.45E+02,0.072519963
5.46E+02,0.063221465
5.46E+02,0.050591448
5.46E+02,0.041950212
5.47E+02,0.037675961
5.47E+02,0.032056606
5.48E+02,0.033010276
5.48E+02,0.030194293
5.48E+02,0.029483738
5.49E+02,0.028726503
5.49E+02,0.027373062
5.49E+02,0.026222739
5.50E+02,0.027632662
5.50E+02,0.025617662
5.50E+02,0.027628119
5.51E+02,0.02468065
5.51E+02,0.025395298
5.51E+02,0.024085433
5.52E+02,0.023191478
5.52E+02,0.022821449
5.53E+02,0.022325201
5.53E+02,0.022881691
5.53E+02,0.021907779
5.54E+02,0.021866493
5.54E+02,0.023182927
5.54E+02,0.023018974
5.55E+02,0.021373826
5.55E+02,0.020362371
5.55E+02,0.02041594
5.56E+02,0.020544192
5.56E+02,0.020839467
5.56E+02,0.020994993
5.57E+02,0.019784236
5.57E+02,0.020591385
5.58E+02,0.018884524
5.58E+02,0.019327704
5.58E+02,0.019418896
5.59E+02,0.019057198
5.59E+02,0.017782447
5.59E+02,0.019405534
5.60E+02,0.018588234
5.60E+02,0.018282232
5.60E+02,0.018181591
5.61E+02,0.018763506
5.61E+02,0.017176029
5.61E+02,0.016856184
5.62E+02,0.018383238
5.62E+02,0.01815922
5.63E+02,0.017540091
5.63E+02,0.018282089
5.63E+02,0.017463748
5.64E+02,0.016491932
5.64E+02,0.017464086
5.64E+02,0.017362309
5.65E+02,0.016347094
5.65E+02,0.01652948
5.65E+02,0.015838825
5.66E+02,0.016194208
5.66E+02,0.016573654
5.66E+02,0.016921807
5.67E+02,0.016693202
5.67E+02,0.016854695
5.67E+02,0.016908435
5.68E+02,0.016054636
5.68E+02,0.015368932
5.69E+02,0.015973438
5.69E+02,0.016493298
5.69E+02,0.01645803
5.70E+02,0.015386129
5.70E+02,0.016603002
5.70E+02,0.015137032
5.71E+02,0.015198041
5.71E+02,0.015323003
5.71E+02,0.015611159
5.72E+02,0.015197775
5.72E+02,0.014810769
5.72E+02,0.014451381
5.73E+02,0.015218773
5.73E+02,0.014774731
5.73E+02,0.014583968
5.74E+02,0.015171607
5.74E+02,0.014798891
5.75E+02,0.014482733
5.75E+02,0.014588092
5.75E+02,0.015137989
5.76E+02,0.01706268
5.76E+02,0.018352973
5.76E+02,0.020092002
5.77E+02,0.019269308
5.77E+02,0.016558455
5.77E+02,0.015658929
5.78E+02,0.01741951
5.78E+02,0.019387512
5.78E+02,0.01975332
5.79E+02,0.016968843
5.79E+02,0.016990913
5.80E+02,0.016180197
5.80E+02,0.016211251
5.80E+02,0.016095371
5.81E+02,0.014511481
5.81E+02,0.015504149
5.81E+02,0.014841757
5.82E+02,0.014145615
5.82E+02,0.013825821
5.82E+02,0.014249594
5.83E+02,0.016416334
5.83E+02,0.014891845
5.83E+02,0.014420813
5.84E+02,0.014867882
5.84E+02,0.015166766
5.84E+02,0.014285167
5.85E+02,0.015249054
5.85E+02,0.014501373
5.85E+02,0.014127299
5.86E+02,0.015090809
5.86E+02,0.014148605
5.87E+02,0.015391446
5.87E+02,0.015015433
5.87E+02,0.014847273
5.88E+02,0.013731189
5.88E+02,0.01429973
5.88E+02,0.014131883
5.89E+02,0.014773748
5.89E+02,0.01409095
5.89E+02,0.013471767
5.90E+02,0.014875203
5.90E+02,0.013357285
5.90E+02,0.012527268
5.91E+02,0.013902038
5.91E+02,0.013819695
5.91E+02,0.014054158
5.92E+02,0.012730047
5.92E+02,0.01512699
5.93E+02,0.012890895
5.93E+02,0.012670963
5.93E+02,0.013289456
5.94E+02,0.01360389
5.94E+02,0.01363042
5.94E+02,0.012245338
5.95E+02,0.012833316
5.95E+02,0.013676643
5.95E+02,0.011795799
5.96E+02,0.012100408
5.96E+02,0.012260251
5.96E+02,0.013418303
5.97E+02,0.013622772
5.97E+02,0.01225786
5.97E+02,0.013628181
5.98E+02,0.013216807
5.98E+02,0.012738124
5.98E+02,0.013079614
5.99E+02,0.013672768
5.99E+02,0.012211687
6.00E+02,0.012005551
6.00E+02,0.013070301
6.00E+02,0.012616455
6.01E+02,0.012338037
6.01E+02,0.012818717
6.01E+02,0.011281498
6.02E+02,0.011264639
6.02E+02,0.011817306
6.02E+02,0.012405613
6.03E+02,0.012157994
6.03E+02,0.012097528
6.03E+02,0.011091513
6.04E+02,0.011790911
6.04E+02,0.011734417
6.04E+02,0.012217954
6.05E+02,0.011672504
6.05E+02,0.011160948
6.05E+02,0.011342969
6.06E+02,0.010873663
6.06E+02,0.011730131
6.07E+02,0.012326496
6.07E+02,0.010892136
6.07E+02,0.011298136
6.08E+02,0.011855166
6.08E+02,0.01155731
6.08E+02,0.011343974
6.09E+02,0.012527191
6.09E+02,0.013490641
6.09E+02,0.014793417
6.10E+02,0.016123097
6.10E+02,0.020723885
6.10E+02,0.022117885
6.11E+02,0.021804361
6.11E+02,0.019887074
6.11E+02,0.018558457
6.12E+02,0.018117251
6.12E+02,0.016767105
6.12E+02,0.014629008
6.13E+02,0.014487321
6.13E+02,0.013603204
6.14E+02,0.014132189
6.14E+02,0.01373426
6.14E+02,0.012231191
6.15E+02,0.01275249
6.15E+02,0.01172922
6.15E+02,0.011769044
6.16E+02,0.011379278
6.16E+02,0.009932581
6.16E+02,0.01064558
6.17E+02,0.010873112
6.17E+02,0.011066746
6.17E+02,0.010627866
6.18E+02,0.010002997
6.18E+02,0.011235695
6.18E+02,0.010389031
6.19E+02,0.010662477
6.19E+02,0.010302057
6.19E+02,0.010198472
6.20E+02,0.010692056
6.20E+02,0.011520016
6.20E+02,0.010785021
6.21E+02,0.01076175
6.21E+02,0.010171855
6.22E+02,0.010068206
6.22E+02,0.010496676
6.22E+02,0.010048131
6.23E+02,0.011149337
6.23E+02,0.009801469
6.23E+02,0.00916514
6.24E+02,0.011485945
6.24E+02,0.011201379
6.24E+02,0.011324498
6.25E+02,0.010120858
6.25E+02,0.010168691
6.25E+02,0.010376043
6.26E+02,0.011453078
6.26E+02,0.010525905
6.26E+02,0.00970099
6.27E+02,0.010674418
6.27E+02,0.009315576
6.27E+02,0.009566674
6.28E+02,0.009886989
6.28E+02,0.009713664
6.28E+02,0.009425887
6.29E+02,0.009987429
6.29E+02,0.009195442
6.30E+02,0.009367361
6.30E+02,0.011099605
6.30E+02,0.010337583
6.31E+02,0.011181681
6.31E+02,0.010377205
6.31E+02,0.010241603
6.32E+02,0.01073947
6.32E+02,0.00918589
6.32E+02,0.008928468
6.33E+02,0.009376383
6.33E+02,0.008676877
6.33E+02,0.009654524
6.34E+02,0.009438742
6.34E+02,0.008382741
6.34E+02,0.008281081
6.35E+02,0.009222094
6.35E+02,0.009397412
6.35E+02,0.00914355
6.36E+02,0.008801461
6.36E+02,0.00874106
6.36E+02,0.009502553
6.37E+02,0.008301359
6.37E+02,0.008976485
6.37E+02,0.00826593
6.38E+02,0.008081897
6.38E+02,0.008639367
6.38E+02,0.00945074
6.39E+02,0.00715813
6.39E+02,0.008047483
6.40E+02,0.009526813
6.40E+02,0.008587976
6.40E+02,0.008896519
6.41E+02,0.008666666
6.41E+02,0.009068525
6.41E+02,0.00946676
6.42E+02,0.008775109
6.42E+02,0.007826025
6.42E+02,0.008903499
6.43E+02,0.00854424
6.43E+02,0.008395468
6.43E+02,0.007728843
6.44E+02,0.008183405
6.44E+02,0.009800285
6.44E+02,0.008573547
6.45E+02,0.008512678
6.45E+02,0.008014757
6.45E+02,0.008858409
6.46E+02,0.008660691
6.46E+02,0.010917879
6.46E+02,0.009146491
6.47E+02,0.008813137
6.47E+02,0.009542997
6.47E+02,0.009081833
6.48E+02,0.008749525
6.48E+02,0.008457762
6.48E+02,0.008119755
6.49E+02,0.008760001
6.49E+02,0.009007232
6.50E+02,0.008936305
6.50E+02,0.008327717
6.50E+02,0.008800882
6.51E+02,0.009047636
6.51E+02,0.007849059
6.51E+02,0.009177745
6.52E+02,0.008883578
6.52E+02,0.009229553
6.52E+02,0.006692848
6.53E+02,0.00822209
6.53E+02,0.008508992
6.53E+02,0.008944074
6.54E+02,0.008000871
6.54E+02,0.007741094
6.54E+02,0.007711528
6.55E+02,0.008238904
6.55E+02,0.008445609
6.55E+02,0.008837273
6.56E+02,0.00852804
6.56E+02,0.007852064
6.56E+02,0.007022463
6.57E+02,0.00976809
6.57E+02,0.008566784
6.57E+02,0.008016592
6.58E+02,0.008456049
6.58E+02,0.008712065
6.58E+02,0.008393608
6.59E+02,0.008833554
6.59E+02,0.007226848
6.59E+02,0.008005088
6.60E+02,0.009593737
6.60E+02,0.010375906
6.60E+02,0.009003483
6.61E+02,0.007719967
6.61E+02,0.01014062
6.61E+02,0.008811387
6.62E+02,0.009893044
6.62E+02,0.007978423
6.63E+02,0.007506875
6.63E+02,0.008544549
6.63E+02,0.007389767
6.64E+02,0.00735677
6.64E+02,0.008834442
6.64E+02,0.008896974
6.65E+02,0.00935379
6.65E+02,0.00809198
6.65E+02,0.008551321
6.66E+02,0.008605773
6.66E+02,0.00758883
6.66E+02,0.008499994
6.67E+02,0.009548667
6.67E+02,0.008125421
6.67E+02,0.008040528
6.68E+02,0.008953155
6.68E+02,0.010016553
6.68E+02,0.006633949
6.69E+02,0.007949327
6.69E+02,0.008915328
6.69E+02,0.00868915
6.70E+02,0.007793678
6.70E+02,0.008102627
6.70E+02,0.008879142
6.71E+02,0.007479011
6.71E+02,0.008349671
6.71E+02,0.006485442
6.72E+02,0.007666123
6.72E+02,0.009618601
6.72E+02,0.008617025
6.73E+02,0.008834309
6.73E+02,0.007207801
6.73E+02,0.008300496
6.74E+02,0.00816349
6.74E+02,0.0090003
6.74E+02,0.009838509
6.75E+02,0.006757768
6.75E+02,0.00682101
6.75E+02,0.008075004
6.76E+02,0.008815338
