Wavelength, W/m2 
346.47, 1.2040 
346.85, 0.2241 
347.23, 0.1176 
347.611, 0.1410 
347.991, 0.0910 
348.371, 0.0773 
348.751, 0.0523 
349.131, 0.0814 
349.511, 0.0682 
349.891, 0.0601 
350.27, 0.0636 
350.65, 0.0597 
351.03, 0.0445 
351.41, 0.0584 
351.79, 0.0532 
352.169, 0.0516 
352.549, 0.0659 
352.928, 0.0514 
353.308, 0.0559 
353.687, 0.0653 
354.067, 0.0534 
354.446, 0.0565 
354.826, 0.0669 
355.205, 0.0582 
355.584, 0.0563 
355.964, 0.0644 
356.343, 0.0630 
356.722, 0.0591 
357.101, 0.0483 
357.48, 0.0522 
357.859, 0.0493 
358.238, 0.0496 
358.617, 0.0561 
358.996, 0.0523 
359.375, 0.0474 
359.754, 0.0511 
360.133, 0.0527 
360.512, 0.0523 
360.891, 0.0375 
361.269, 0.0515 
361.648, 0.0500 
362.027, 0.0531 
362.405, 0.0438 
362.784, 0.0480 
363.162, 0.0495 
363.541, 0.0440 
363.919, 0.0464 
364.298, 0.0483 
364.676, 0.0418 
365.054, 0.0465 
365.433, 0.0371 
365.811, 0.0394 
366.189, 0.0438 
366.567, 0.0439 
366.945, 0.0384 
367.323, 0.0420 
367.701, 0.0469 
368.079, 0.0420 
368.457, 0.0407 
368.835, 0.0383 
369.213, 0.0263 
369.591, 0.0355 
369.969, 0.0396 
370.346, 0.0385 
370.724, 0.0448 
371.102, 0.0424 
371.479, 0.0422 
371.857, 0.0416 
372.235, 0.0372 
372.612, 0.0383 
372.99, 0.0410 
373.367, 0.0368 
373.744, 0.0335 
374.122, 0.0298 
374.499, 0.0355 
374.876, 0.0361 
375.254, 0.0374 
375.631, 0.0379 
376.008, 0.0391 
376.385, 0.0283 
376.762, 0.0338 
377.139, 0.0289 
377.516, 0.0293 
377.893, 0.0381 
378.27, 0.0392 
378.647, 0.0364 
379.024, 0.0324 
379.4, 0.0351 
379.777, 0.0287 
380.154, 0.0415 
380.53, 0.0342 
380.907, 0.0316 
381.284, 0.0300 
381.66, 0.0332 
382.037, 0.0262 
382.413, 0.0293 
382.79, 0.0298 
383.166, 0.0286 
383.542, 0.0317 
383.919, 0.0286 
384.295, 0.0304 
384.671, 0.0313 
385.047, 0.0300 
385.423, 0.0294 
385.799, 0.0242 
386.176, 0.0290 
386.552, 0.0270 
386.928, 0.0286 
387.303, 0.0310 
387.679, 0.0269 
388.055, 0.0294 
388.431, 0.0301 
388.807, 0.0296 
389.183, 0.0302 
389.558, 0.0261 
389.934, 0.0333 
390.309, 0.0273 
390.685, 0.0239 
391.061, 0.0264 
391.436, 0.0274 
391.811, 0.0275 
392.187, 0.0248 
392.562, 0.0273 
392.938, 0.0287 
393.313, 0.0245 
393.688, 0.0237 
394.063, 0.0257 
394.438, 0.0229 
394.814, 0.0259 
395.189, 0.0258 
395.564, 0.0251 
395.939, 0.0214 
396.314, 0.0213 
396.689, 0.0259 
397.063, 0.0213 
397.438, 0.0211 
397.813, 0.0232 
398.188, 0.0245 
398.563, 0.0222 
398.937, 0.0204 
399.312, 0.0215 
399.686, 0.0218 
400.061, 0.0201 
400.435, 0.0207 
400.81, 0.0207 
401.184, 0.0219 
401.559, 0.0204 
401.933, 0.0232 
402.307, 0.0229 
402.682, 0.0215 
403.056, 0.0183 
403.43, 0.0221 
403.804, 0.0279 
404.178, 0.0291 
404.552, 0.0236 
404.926, 0.0204 
405.3, 0.0203 
405.674, 0.0186 
406.048, 0.0257 
406.422, 0.0190 
406.796, 0.0222 
407.169, 0.0223 
407.543, 0.0214 
407.917, 0.0205 
408.291, 0.0214 
408.664, 0.0204 
409.038, 0.0197 
409.411, 0.0241 
409.785, 0.0241 
410.158, 0.0229 
410.531, 0.0203 
410.905, 0.0203 
411.278, 0.0208 
411.651, 0.0214 
412.025, 0.0212 
412.398, 0.0213 
412.771, 0.0209 
413.144, 0.0231 
413.517, 0.0202 
413.89, 0.0385 
414.263, 0.0203 
414.636, 0.0223 
415.009, 0.0223 
415.382, 0.0222 
415.755, 0.0208 
416.127, 0.0217 
416.5, 0.0209 
416.873, 0.0238 
417.245, 0.0249 
417.618, 0.0243 
417.991, 0.0246 
418.363, 0.0273 
418.736, 0.0260 
419.108, 0.0248 
419.48, 0.0271 
419.853, 0.0269 
420.225, 0.0301 
420.597, 0.0270 
420.97, 0.0284 
421.342, 0.0299 
421.714, 0.0291 
422.086, 0.0326 
422.458, 0.0316 
422.83, 0.0340 
423.202, 0.0350 
423.574, 0.0353 
423.946, 0.0341 
424.318, 0.0342 
424.69, 0.0340 
425.061, 0.0398 
425.433, 0.0408 
425.805, 0.0446 
426.177, 0.0470 
426.548, 0.0490 
426.92, 0.0485 
427.291, 0.0485 
427.663, 0.0523 
428.034, 0.0562 
428.406, 0.0588 
428.777, 0.0588 
429.148, 0.0660 
429.519, 0.0710 
429.891, 0.0745 
430.262, 0.0725 
430.633, 0.0748 
431.004, 0.0790 
431.375, 0.0845 
431.746, 0.0874 
432.117, 0.0912 
432.488, 0.1044 
432.859, 0.1040 
433.23, 0.1101 
433.601, 0.1137 
433.971, 0.1280 
434.342, 0.1299 
434.713, 0.1509 
435.083, 0.1608 
435.454, 0.1708 
435.825, 0.1625 
436.195, 0.1665 
436.566, 0.1698 
436.936, 0.1822 
437.306, 0.1950 
437.677, 0.2003 
438.047, 0.2152 
438.417, 0.2221 
438.788, 0.2348 
439.158, 0.2420 
439.528, 0.2624 
439.898, 0.2700 
440.268, 0.2899 
440.638, 0.3006 
441.008, 0.3211 
441.378, 0.3376 
441.748, 0.3399 
442.118, 0.3648 
442.487, 0.3919 
442.857, 0.3981 
443.227, 0.4152 
443.597, 0.4423 
443.966, 0.4640 
444.336, 0.4821 
444.705, 0.5027 
445.075, 0.5360 
445.444, 0.5577 
445.814, 0.5806 
446.183, 0.6173 
446.552, 0.6340 
446.922, 0.6801 
447.291, 0.6943 
447.66, 0.7313 
448.029, 0.7521 
448.398, 0.8026 
448.768, 0.8445 
449.137, 0.8761 
449.506, 0.9205 
449.875, 0.9564 
450.243, 0.9792 
450.612, 1.0367 
450.981, 1.0725 
451.35, 1.1360 
451.719, 1.1796 
452.087, 1.2085 
452.456, 1.2478 
452.825, 1.3087 
453.193, 1.3275 
453.562, 1.3674 
453.93, 1.4255 
454.299, 1.4626 
454.667, 1.4766 
455.035, 1.5096 
455.404, 1.5286 
455.772, 1.5286 
456.14, 1.5691 
456.508, 1.5813 
456.877, 1.5797 
457.245, 1.5754 
457.613, 1.5844 
457.981, 1.5963 
458.349, 1.6075 
458.717, 1.5885 
459.085, 1.5966 
459.452, 1.5943 
459.82, 1.5768 
460.188, 1.5596 
460.556, 1.5750 
460.923, 1.5489 
461.291, 1.5245 
461.659, 1.5077 
462.026, 1.4981 
462.394, 1.4547 
462.761, 1.4381 
463.128, 1.4232 
463.496, 1.3903 
463.863, 1.3464 
464.23, 1.3321 
464.598, 1.2870 
464.965, 1.2375 
465.332, 1.2151 
465.699, 1.1450 
466.066, 1.1213 
466.433, 1.0873 
466.8, 1.0298 
467.167, 0.9998 
467.534, 0.9826 
467.901, 0.9309 
468.268, 0.8945 
468.635, 0.8789 
469.001, 0.8451 
469.368, 0.8080 
469.735, 0.7779 
470.101, 0.7604 
470.468, 0.7417 
470.834, 0.7209 
471.201, 0.6950 
471.567, 0.6787 
471.934, 0.6625 
472.3, 0.6457 
472.666, 0.6270 
473.032, 0.6113 
473.399, 0.5964 
473.765, 0.5736 
474.131, 0.5563 
474.497, 0.5380 
474.863, 0.5278 
475.229, 0.4991 
475.595, 0.4971 
475.961, 0.4830 
476.327, 0.4599 
476.693, 0.4533 
477.058, 0.4326 
477.424, 0.4165 
477.79, 0.4060 
478.156, 0.3950 
478.521, 0.3735 
478.887, 0.3662 
479.252, 0.3486 
479.618, 0.3335 
479.983, 0.3224 
480.348, 0.3093 
480.714, 0.2984 
481.079, 0.2879 
481.444, 0.2756 
481.81, 0.2663 
482.175, 0.2537 
482.54, 0.2456 
482.905, 0.2341 
483.27, 0.2220 
483.635, 0.2151 
484, 0.2051 
484.365, 0.2009 
484.73, 0.1933 
485.095, 0.1868 
485.459, 0.1790 
485.824, 0.1715 
486.189, 0.1629 
486.553, 0.1597 
486.918, 0.1524 
487.283, 0.1512 
487.647, 0.1453 
488.012, 0.1409 
488.376, 0.1335 
488.74, 0.1299 
489.105, 0.1241 
489.469, 0.1223 
489.833, 0.1203 
490.198, 0.1125 
490.562, 0.1114 
490.926, 0.1088 
491.29, 0.1022 
491.654, 0.0990 
492.018, 0.0978 
492.382, 0.0929 
492.746, 0.0905 
493.11, 0.0880 
493.474, 0.0853 
493.837, 0.0799 
494.201, 0.0778 
494.565, 0.0756 
494.928, 0.0735 
495.292, 0.0711 
495.656, 0.0703 
496.019, 0.0682 
496.383, 0.0649 
496.746, 0.0605 
497.109, 0.0604 
497.473, 0.0566 
497.836, 0.0569 
498.199, 0.0548 
498.563, 0.0506 
498.926, 0.0495 
499.289, 0.0481 
499.652, 0.0469 
500.015, 0.0449 
500.378, 0.0422 
500.741, 0.0422 
501.104, 0.0416 
501.467, 0.0382 
501.829, 0.0386 
502.192, 0.0379 
502.555, 0.0345 
502.918, 0.0346 
503.28, 0.0343 
503.643, 0.0331 
504.005, 0.0325 
504.368, 0.0303 
504.73, 0.0285 
505.093, 0.0289 
505.455, 0.0272 
505.817, 0.0273 
506.18, 0.0265 
506.542, 0.0271 
506.904, 0.0255 
507.266, 0.0263 
507.628, 0.0244 
507.991, 0.0248 
508.353, 0.0235 
508.715, 0.0220 
509.076, 0.0220 
509.438, 0.0221 
509.8, 0.0207 
510.162, 0.0197 
510.524, 0.0196 
510.885, 0.0201 
511.247, 0.0188 
511.609, 0.0179 
511.97, 0.0185 
512.332, 0.0190 
512.693, 0.0183 
513.055, 0.0181 
513.416, 0.0171 
513.778, 0.0167 
514.139, 0.0166 
514.5, 0.0160 
514.861, 0.0147 
515.223, 0.0155 
515.584, 0.0142 
515.945, 0.0160 
516.306, 0.0150 
516.667, 0.0149 
517.028, 0.0144 
517.389, 0.0153 
517.75, 0.0145 
518.11, 0.0137 
518.471, 0.0143 
518.832, 0.0134 
519.193, 0.0129 
519.553, 0.0132 
519.914, 0.0124 
520.274, 0.0128 
520.635, 0.0123 
520.995, 0.0132 
521.356, 0.0125 
521.716, 0.0119 
522.076, 0.0130 
522.437, 0.0123 
522.797, 0.0126 
523.157, 0.0123 
523.517, 0.0110 
523.877, 0.0109 
524.238, 0.0114 
524.598, 0.0121 
524.958, 0.0108 
525.317, 0.0114 
525.677, 0.0103 
526.037, 0.0113 
526.397, 0.0113 
526.757, 0.0109 
527.116, 0.0102 
527.476, 0.0108 
527.836, 0.0109 
528.195, 0.0096 
528.555, 0.0093 
528.914, 0.0103 
529.274, 0.0113 
529.633, 0.0109 
529.993, 0.0102 
530.352, 0.0102 
530.711, 0.0102 
531.07, 0.0096 
531.429, 0.0100 
531.789, 0.0098 
532.148, 0.0096 
532.507, 0.0097 
532.866, 0.0093 
533.225, 0.0090 
533.584, 0.0101 
533.942, 0.0101 
534.301, 0.0089 
534.66, 0.0098 
535.019, 0.0097 
535.377, 0.0088 
535.736, 0.0098 
536.095, 0.0099 
536.453, 0.0089 
536.812, 0.0087 
537.17, 0.0091 
537.528, 0.0105 
537.887, 0.0093 
538.245, 0.0091 
538.603, 0.0106 
538.962, 0.0104 
539.32, 0.0115 
539.678, 0.0130 
540.036, 0.0129 
540.394, 0.0153 
540.752, 0.0175 
541.11, 0.0180 
541.468, 0.0184 
541.826, 0.0163 
542.184, 0.0158 
542.541, 0.0162 
542.899, 0.0156 
543.257, 0.0145 
543.614, 0.0153 
543.972, 0.0145 
544.33, 0.0153 
544.687, 0.0187 
545.045, 0.0250 
545.402, 0.0266 
545.759, 0.0249 
546.117, 0.0197 
546.474, 0.0161 
546.831, 0.0151 
547.188, 0.0138 
547.546, 0.0122 
547.903, 0.0125 
548.26, 0.0119 
548.617, 0.0102 
548.974, 0.0113 
549.331, 0.0111 
549.687, 0.0107 
550.044, 0.0102 
550.401, 0.0092 
550.758, 0.0083 
551.114, 0.0084 
551.471, 0.0091 
551.828, 0.0095 
552.184, 0.0090 
552.541, 0.0086 
552.897, 0.0092 
553.254, 0.0082 
553.61, 0.0083 
553.966, 0.0084 
554.323, 0.0075 
554.679, 0.0077 
555.035, 0.0091 
555.391, 0.0075 
555.747, 0.0080 
556.103, 0.0077 
556.459, 0.0070 
556.815, 0.0075 
557.171, 0.0069 
557.527, 0.0067 
557.883, 0.0066 
558.239, 0.0067 
558.594, 0.0068 
558.95, 0.0072 
559.306, 0.0070 
559.661, 0.0084 
560.017, 0.0068 
560.372, 0.0075 
560.728, 0.0071 
561.083, 0.0076 
561.438, 0.0072 
561.794, 0.0081 
562.149, 0.0063 
562.504, 0.0078 
562.859, 0.0071 
563.215, 0.0085 
563.57, 0.0072 
563.925, 0.0071 
564.28, 0.0069 
564.635, 0.0084 
564.99, 0.0071 
565.344, 0.0068 
565.699, 0.0076 
566.054, 0.0071 
566.409, 0.0065 
566.763, 0.0077 
567.118, 0.0074 
567.473, 0.0077 
567.827, 0.0066 
568.182, 0.0073 
568.536, 0.0065 
568.891, 0.0080 
569.245, 0.0065 
569.599, 0.0070 
569.953, 0.0071 
570.308, 0.0079 
570.662, 0.0071 
571.016, 0.0079 
571.37, 0.0070 
571.724, 0.0071 
572.078, 0.0056 
572.432, 0.0069 
572.786, 0.0064 
573.14, 0.0074 
573.494, 0.0072 
573.847, 0.0067 
574.201, 0.0067 
574.555, 0.0079 
574.908, 0.0082 
575.262, 0.0074 
575.615, 0.0086 
575.969, 0.0089 
576.322, 0.0089 
576.676, 0.0079 
577.029, 0.0083 
577.382, 0.0067 
577.736, 0.0073 
578.089, 0.0085 
578.442, 0.0088 
578.795, 0.0075 
579.148, 0.0085 
579.501, 0.0081 
579.854, 0.0088 
580.207, 0.0093 
580.56, 0.0074 
580.913, 0.0087 
581.265, 0.0080 
581.618, 0.0083 
581.971, 0.0088 
582.324, 0.0089 
582.676, 0.0086 
583.029, 0.0093 
583.381, 0.0085 
583.734, 0.0094 
584.086, 0.0092 
584.438, 0.0092 
584.791, 0.0082 
585.143, 0.0083 
585.495, 0.0083 
585.847, 0.0078 
586.2, 0.0097 
586.552, 0.0093 
586.904, 0.0092 
587.256, 0.0083 
587.608, 0.0088 
587.959, 0.0079 
588.311, 0.0079 
588.663, 0.0094 
589.015, 0.0089 
589.367, 0.0084 
589.718, 0.0080 
590.07, 0.0083 
590.421, 0.0081 
590.773, 0.0091 
591.124, 0.0089 
591.476, 0.0085 
591.827, 0.0078 
592.179, 0.0088 
592.53, 0.0082 
592.881, 0.0091 
593.232, 0.0084 
593.584, 0.0080 
593.935, 0.0078 
594.286, 0.0079 
594.637, 0.0080 
594.988, 0.0073 
595.339, 0.0075 
595.689, 0.0077 
596.04, 0.0086 
596.391, 0.0077 
596.742, 0.0070 
597.092, 0.0076 
597.443, 0.0083 
597.794, 0.0080 
598.144, 0.0088 
598.495, 0.0080 
598.845, 0.0087 
599.196, 0.0079 
599.546, 0.0073 
599.896, 0.0078 
600.247, 0.0078 
600.597, 0.0083 
600.947, 0.0067 
601.297, 0.0075 
601.647, 0.0071 
601.997, 0.0093 
602.347, 0.0069 
602.697, 0.0090 
603.047, 0.0084 
603.397, 0.0078 
603.747, 0.0079 
604.096, 0.0086 
604.446, 0.0079 
604.796, 0.0070 
605.145, 0.0083 
605.495, 0.0081 
605.844, 0.0076 
606.194, 0.0072 
606.543, 0.0086 
606.893, 0.0072 
607.242, 0.0083 
607.591, 0.0082 
607.94, 0.0088 
608.29, 0.0082 
608.639, 0.0094 
608.988, 0.0093 
609.337, 0.0119 
609.686, 0.0149 
610.035, 0.0203 
610.384, 0.0235 
610.733, 0.0239 
611.081, 0.0232 
611.43, 0.0188 
611.779, 0.0178 
612.127, 0.0165 
612.476, 0.0147 
612.825, 0.0134 
613.173, 0.0137 
613.522, 0.0120 
613.87, 0.0114 
614.218, 0.0113 
614.567, 0.0109 
614.915, 0.0089 
615.263, 0.0099 
615.611, 0.0090 
615.96, 0.0081 
616.308, 0.0079 
616.656, 0.0080 
617.004, 0.0087 
617.352, 0.0083 
617.7, 0.0084 
618.047, 0.0079 
618.395, 0.0078 
618.743, 0.0074 
619.091, 0.0081 
619.438, 0.0075 
619.786, 0.0076 
620.134, 0.0084 
620.481, 0.0089 
620.829, 0.0074 
621.176, 0.0075 
621.523, 0.0092 
621.871, 0.0092 
622.218, 0.0078 
622.565, 0.0085 
622.912, 0.0076 
623.259, 0.0089 
623.607, 0.0081 
623.954, 0.0079 
624.301, 0.0084 
624.648, 0.0101 
624.994, 0.0080 
625.341, 0.0083 
625.688, 0.0090 
626.035, 0.0085 
626.382, 0.0085 
626.728, 0.0089 
627.075, 0.0086 
627.421, 0.0084 
627.768, 0.0090 
628.114, 0.0077 
628.461, 0.0089 
628.807, 0.0079 
629.154, 0.0082 
629.5, 0.0096 
629.846, 0.0094 
630.192, 0.0094 
630.538, 0.0103 
630.884, 0.0086 
631.231, 0.0090 
631.577, 0.0087 
631.922, 0.0073 
632.268, 0.0082 
632.614, 0.0074 
632.96, 0.0076 
633.306, 0.0067 
633.651, 0.0083 
633.997, 0.0085 
634.343, 0.0076 
634.688, 0.0079 
635.034, 0.0087 
635.379, 0.0075 
635.725, 0.0070 
636.07, 0.0076 
636.415, 0.0073 
636.761, 0.0075 
637.106, 0.0079 
637.451, 0.0073 
637.796, 0.0070 
638.141, 0.0071 
638.486, 0.0079 
638.831, 0.0070 
639.176, 0.0071 
639.521, 0.0075 
639.866, 0.0085 
640.211, 0.0077 
640.555, 0.0073 
640.9, 0.0072 
641.245, 0.0069 
641.589, 0.0071 
641.934, 0.0084 
642.278, 0.0071 
642.623, 0.0077 
642.967, 0.0063 
643.312, 0.0075 
643.656, 0.0070 
644, 0.0088 
644.344, 0.0070 
644.689, 0.0077 
645.033, 0.0072 
645.377, 0.0074 
645.721, 0.0087 
646.065, 0.0079 
646.409, 0.0080 
646.753, 0.0086 
647.096, 0.0083 
647.44, 0.0081 
647.784, 0.0075 
648.128, 0.0086 
648.471, 0.0082 
648.815, 0.0071 
649.158, 0.0081 
649.502, 0.0083 
649.845, 0.0082 
650.189, 0.0086 
650.532, 0.0093 
650.875, 0.0082 
651.218, 0.0067 
651.562, 0.0078 
651.905, 0.0089 
652.248, 0.0083 
652.591, 0.0079 
652.934, 0.0092 
653.277, 0.0078 
653.62, 0.0085 
653.963, 0.0073 
654.305, 0.0089 
654.648, 0.0089 
654.991, 0.0081 
655.334, 0.0074 
655.676, 0.0097 
656.019, 0.0089 
656.361, 0.0072 
656.704, 0.0075 
657.046, 0.0080 
657.389, 0.0070 
657.731, 0.0084 
658.073, 0.0087 
658.415, 0.0073 
658.757, 0.0099 
659.1, 0.0085 
659.442, 0.0085 
659.784, 0.0072 
660.126, 0.0087 
660.468, 0.0094 
660.809, 0.0071 
661.151, 0.0099 
661.493, 0.0089 
661.835, 0.0078 
662.177, 0.0085 
662.518, 0.0070 
662.86, 0.0080 
663.201, 0.0060 
663.543, 0.0078 
663.884, 0.0073 
664.226, 0.0069 
664.567, 0.0078 
664.908, 0.0088 
665.249, 0.0100 
665.591, 0.0078 
665.932, 0.0078 
666.273, 0.0084 
666.614, 0.0076 
666.955, 0.0069 
667.296, 0.0070 
667.637, 0.0083 
667.978, 0.0077 
668.318, 0.0075 
668.659, 0.0080 
669, 0.0091 
669.341, 0.0088 
669.681, 0.0073 
670.022, 0.0099 
670.362, 0.0089 
670.703, 0.0081 
671.043, 0.0089 
671.383, 0.0088 
671.724, 0.0077 
672.064, 0.0092 
672.404, 0.0079 
672.744, 0.0079 
673.085, 0.0072 
673.425, 0.0084 
673.765, 0.0072 
674.105, 0.0086 
674.444, 0.0085 
674.784, 0.0095 
675.124, 0.0096 
675.464, 0.0095 
675.804, 0.0077 
676.143, 0.0091 
676.483, 0.0092 
676.823, 0.0096 
677.162, 0.0082 
677.501, 0.0094 
677.841, 0.0079 
678.18, 0.0083 
678.52, 0.0088 
678.859, 0.0075 
679.198, 0.0080 
679.537, 0.0095 
679.876, 0.0085 
680.215, 0.0088 
680.555, 0.0084 
680.894, 0.0087 
681.232, 0.0089 
681.571, 0.0093 
681.91, 0.0100 
682.249, 0.0082 
682.588, 0.0091 
682.926, 0.0073 
683.265, 0.0080 
683.604, 0.0088 
683.942, 0.0095 
684.281, 0.0105 
684.619, 0.0091 
684.957, 0.0097 
685.296, 0.0087 
685.634, 0.0097 
685.972, 0.0108 
686.31, 0.0093 
686.649, 0.0104 
686.987, 0.0097 
687.325, 0.0099 
687.663, 0.0083 
688.001, 0.0091 
688.338, 0.0079 
688.676, 0.0094 
689.014, 0.0101 
689.352, 0.0108 
689.69, 0.0085 
690.027, 0.0098 
690.365, 0.0084 
690.702, 0.0094 
691.04, 0.0095 
691.377, 0.0093 
691.715, 0.0086 
692.052, 0.0092 
692.389, 0.0094 
692.726, 0.0111 
693.064, 0.0094 
693.401, 0.0116 
693.738, 0.0086 
694.075, 0.0086 
694.412, 0.0104 
694.749, 0.0079 
695.086, 0.0100 
695.423, 0.0105 
695.759, 0.0093 
696.096, 0.0083 
696.433, 0.0100 
696.769, 0.0093 
697.106, 0.0091 
697.443, 0.0093 
697.779, 0.0106 
698.116, 0.0097 
698.452, 0.0098 
698.788, 0.0086 
699.125, 0.0099 
699.461, 0.0099 
699.797, 0.0094 
700.133, 0.0109 
700.469, 0.0094 
700.805, 0.0103 
701.141, 0.0099 
701.477, 0.0099 
701.813, 0.0113 
702.149, 0.0107 
702.485, 0.0119 
702.82, 0.0121 
703.156, 0.0104 
703.492, 0.0114 
703.827, 0.0105 
704.163, 0.0110 
704.498, 0.0110 
704.834, 0.0105 
705.169, 0.0112 
705.505, 0.0126 
705.84, 0.0103 
706.175, 0.0116 
706.51, 0.0126 
706.845, 0.0110 
707.18, 0.0115 
707.515, 0.0109 
707.85, 0.0130 
708.185, 0.0124 
708.52, 0.0121 
708.855, 0.0116 
709.19, 0.0099 
709.525, 0.0109 
709.859, 0.0128 
710.194, 0.0116 
710.529, 0.0106 
710.863, 0.0102 
711.198, 0.0127 
711.532, 0.0111 
711.866, 0.0130 
712.201, 0.0120 
712.535, 0.0126 
712.869, 0.0115 
713.203, 0.0121 
713.537, 0.0095 
713.872, 0.0116 
714.206, 0.0114 
714.54, 0.0096 
714.873, 0.0120 
715.207, 0.0102 
715.541, 0.0106 
715.875, 0.0105 
716.209, 0.0122 
716.542, 0.0124 
716.876, 0.0115 
717.21, 0.0129 
717.543, 0.0124 
717.877, 0.0108 
718.21, 0.0102 
718.543, 0.0124 
718.877, 0.0127 
719.21, 0.0106 
719.543, 0.0127 
719.876, 0.0121 
720.209, 0.0116 
720.542, 0.0133 
720.875, 0.0105 
721.208, 0.0131 
721.541, 0.0110 
721.874, 0.0115 
722.207, 0.0108 
722.54, 0.0127 
722.872, 0.0115 
723.205, 0.0110 
723.538, 0.0113 
723.87, 0.0106 
724.203, 0.0125 
724.535, 0.0127 
724.868, 0.0120 
725.2, 0.0137 
725.532, 0.0142 
725.865, 0.0106 
726.197, 0.0151 
726.529, 0.0123 
726.861, 0.0110 
727.193, 0.0130 
727.525, 0.0128 
727.857, 0.0141 
728.189, 0.0133 
728.521, 0.0150 
728.853, 0.0145 
729.184, 0.0132 
729.516, 0.0149 
729.848, 0.0132 
730.179, 0.0135 
730.511, 0.0135 
730.842, 0.0124 
731.174, 0.0115 
731.505, 0.0117 
731.836, 0.0109 
732.168, 0.0118 
732.499, 0.0144 
732.83, 0.0131 
733.161, 0.0114 
733.492, 0.0136 
733.823, 0.0139 
734.154, 0.0125 
734.485, 0.0123 
734.816, 0.0140 
735.147, 0.0089 
735.478, 0.0122 
735.808, 0.0111 
736.139, 0.0153 
736.47, 0.0117 
736.8, 0.0122 
737.131, 0.0129 
737.461, 0.0125 
737.792, 0.0143 
738.122, 0.0123 
738.452, 0.0126 
738.782, 0.0138 
739.113, 0.0122 
739.443, 0.0135 
739.773, 0.0143 
740.103, 0.0121 
740.433, 0.0124 
740.763, 0.0148 
741.093, 0.0133 
741.423, 0.0144 
741.752, 0.0148 
742.082, 0.0135 
742.412, 0.0137 
742.742, 0.0129 
743.071, 0.0167 
743.401, 0.0123 
743.73, 0.0135 
