Wavelength, W/m2 
339.619, -   
340, -   
340.381, -   
340.762, -   
341.143, -   
341.524, -   
341.904, -   
342.285, -   
342.666, -   
343.046, -   
343.427, -   
343.807, -   
344.188, -   
344.568, -   
344.949, -   
345.329, -   
345.71, -   
346.09, -   
346.47, 1.3727 
346.85, 0.1380 
347.23, 0.1447 
347.611, 0.0700 
347.991, 0.0728 
348.371, 0.0689 
348.751, 0.0614 
349.131, 0.0514 
349.511, 0.0453 
349.891, 0.0628 
350.27, 0.0372 
350.65, 0.0476 
351.03, 0.0509 
351.41, 0.0408 
351.79, 0.0431 
352.169, 0.0405 
352.549, 0.0631 
352.928, 0.0490 
353.308, 0.0405 
353.687, 0.0402 
354.067, 0.0565 
354.446, 0.0470 
354.826, 0.0526 
355.205, 0.0514 
355.584, 0.0435 
355.964, 0.0421 
356.343, 0.0384 
356.722, 0.0429 
357.101, 0.0455 
357.48, 0.0418 
357.859, 0.0465 
358.238, 0.0448 
358.617, 0.0376 
358.996, 0.0335 
359.375, 0.0485 
359.754, 0.0416 
360.133, 0.0465 
360.512, 0.0386 
360.891, 0.0377 
361.269, 0.0436 
361.648, 0.0421 
362.027, 0.0407 
362.405, 0.0413 
362.784, 0.0377 
363.162, 0.0355 
363.541, 0.0483 
363.919, 0.0355 
364.298, 0.0311 
364.676, 0.0346 
365.054, 0.0407 
365.433, 0.0261 
365.811, 0.0312 
366.189, 0.0328 
366.567, 0.0304 
366.945, 0.0339 
367.323, 0.0333 
367.701, 0.0359 
368.079, 0.0392 
368.457, 0.0336 
368.835, 0.0336 
369.213, 0.0367 
369.591, 0.0325 
369.969, 0.0356 
370.346, 0.0298 
370.724, 0.0317 
371.102, 0.0268 
371.479, 0.0371 
371.857, 0.0301 
372.235, 0.0283 
372.612, 0.0252 
372.99, 0.0308 
373.367, 0.0332 
373.744, 0.0322 
374.122, 0.0333 
374.499, 0.0323 
374.876, 0.0305 
375.254, 0.0345 
375.631, 0.0362 
376.008, 0.0351 
376.385, 0.0230 
376.762, 0.0239 
377.139, 0.0341 
377.516, 0.0227 
377.893, 0.0249 
378.27, 0.0238 
378.647, 0.0300 
379.024, 0.0265 
379.4, 0.0267 
379.777, 0.0243 
380.154, 0.0224 
380.53, 0.0274 
380.907, 0.0251 
381.284, 0.0220 
381.66, 0.0238 
382.037, 0.0282 
382.413, 0.0267 
382.79, 0.0263 
383.166, 0.0241 
383.542, 0.0286 
383.919, 0.0212 
384.295, 0.0261 
384.671, 0.0242 
385.047, 0.0219 
385.423, 0.0171 
385.799, 0.0255 
386.176, 0.0212 
386.552, 0.0223 
386.928, 0.0219 
387.303, 0.0269 
387.679, 0.0197 
388.055, 0.0235 
388.431, 0.0239 
388.807, 0.0210 
389.183, 0.0180 
389.558, 0.0207 
389.934, 0.0205 
390.309, 0.0205 
390.685, 0.0247 
391.061, 0.0222 
391.436, 0.0187 
391.811, 0.0185 
392.187, 0.0170 
392.562, 0.0192 
392.938, 0.0193 
393.313, 0.0205 
393.688, 0.0195 
394.063, 0.0178 
394.438, 0.0197 
394.814, 0.0204 
395.189, 0.0191 
395.564, 0.0189 
395.939, 0.0206 
396.314, 0.0181 
396.689, 0.0215 
397.063, 0.0153 
397.438, 0.0197 
397.813, 0.0213 
398.188, 0.0176 
398.563, 0.0185 
398.937, 0.0167 
399.312, 0.0151 
399.686, 0.0185 
400.061, 0.0142 
400.435, 0.0161 
400.81, 0.0169 
401.184, 0.0194 
401.559, 0.0142 
401.933, 0.0167 
402.307, 0.0139 
402.682, 0.0125 
403.056, 0.0177 
403.43, 0.0186 
403.804, 0.0211 
404.178, 0.0195 
404.552, 0.0189 
404.926, 0.0148 
405.3, 0.0143 
405.674, 0.0170 
406.048, 0.0166 
406.422, 0.0123 
406.796, 0.0154 
407.169, 0.0168 
407.543, 0.0133 
407.917, 0.0170 
408.291, 0.0155 
408.664, 0.0164 
409.038, 0.0114 
409.411, 0.0134 
409.785, 0.0151 
410.158, 0.0163 
410.531, 0.0138 
410.905, 0.0168 
411.278, 0.0136 
411.651, 0.0136 
412.025, 0.0125 
412.398, 0.0136 
412.771, 0.0149 
413.144, 0.0138 
413.517, 0.0151 
413.89, 0.0156 
414.263, 0.0134 
414.636, 0.0128 
415.009, 0.0144 
415.382, 0.0122 
415.755, 0.0144 
416.127, 0.0135 
416.5, 0.0142 
416.873, 0.0122 
417.245, 0.0161 
417.618, 0.0131 
417.991, 0.0132 
418.363, 0.0153 
418.736, 0.0141 
419.108, 0.0144 
419.48, 0.0155 
419.853, 0.0130 
420.225, 0.0150 
420.597, 0.0127 
420.97, 0.0124 
421.342, 0.0145 
421.714, 0.0143 
422.086, 0.0095 
422.458, 0.0132 
422.83, 0.0110 
423.202, 0.0125 
423.574, 0.0173 
423.946, 0.0106 
424.318, 0.0107 
424.69, 0.0128 
425.061, 0.0137 
425.433, 0.0147 
425.805, 0.0127 
426.177, 0.0134 
426.548, 0.0113 
426.92, 0.0140 
427.291, 0.0104 
427.663, 0.0131 
428.034, 0.0136 
428.406, 0.0124 
428.777, 0.0110 
429.148, 0.0125 
429.519, 0.0092 
429.891, 0.0122 
430.262, 0.0116 
430.633, 0.0117 
431.004, 0.0095 
431.375, 0.0127 
431.746, 0.0106 
432.117, 0.0118 
432.488, 0.0112 
432.859, 0.0101 
433.23, 0.0137 
433.601, 0.0110 
433.971, 0.0108 
434.342, 0.0129 
434.713, 0.0128 
435.083, 0.0247 
435.454, 0.0268 
435.825, 0.0229 
436.195, 0.0141 
436.566, 0.0116 
436.936, 0.0129 
437.306, 0.0085 
437.677, 0.0114 
438.047, 0.0103 
438.417, 0.0103 
438.788, 0.0099 
439.158, 0.0122 
439.528, 0.0119 
439.898, 0.0096 
440.268, 0.0094 
440.638, 0.0104 
441.008, 0.0116 
441.378, 0.0090 
441.748, 0.0106 
442.118, 0.0134 
442.487, 0.0118 
442.857, 0.0128 
443.227, 0.0118 
443.597, 0.0107 
443.966, 0.0090 
444.336, 0.0097 
444.705, 0.0126 
445.075, 0.0102 
445.444, 0.0125 
445.814, 0.0121 
446.183, 0.0110 
446.552, 0.0134 
446.922, 0.0102 
447.291, 0.0100 
447.66, 0.0123 
448.029, 0.0108 
448.398, 0.0116 
448.768, 0.0118 
449.137, 0.0095 
449.506, 0.0115 
449.875, 0.0099 
450.243, 0.0118 
450.612, 0.0115 
450.981, 0.0117 
451.35, 0.0112 
451.719, 0.0122 
452.087, 0.0113 
452.456, 0.0101 
452.825, 0.0104 
453.193, 0.0094 
453.562, 0.0113 
453.93, 0.0080 
454.299, 0.0102 
454.667, 0.0106 
455.035, 0.0111 
455.404, 0.0125 
455.772, 0.0128 
456.14, 0.0109 
456.508, 0.0107 
456.877, 0.0092 
457.245, 0.0112 
457.613, 0.0075 
457.981, 0.0100 
458.349, 0.0095 
458.717, 0.0110 
459.085, 0.0109 
459.452, 0.0071 
459.82, 0.0113 
460.188, 0.0102 
460.556, 0.0095 
460.923, 0.0088 
461.291, 0.0107 
461.659, 0.0118 
462.026, 0.0106 
462.394, 0.0093 
462.761, 0.0103 
463.128, 0.0099 
463.496, 0.0090 
463.863, 0.0108 
464.23, 0.0081 
464.598, 0.0105 
464.965, 0.0078 
465.332, 0.0084 
465.699, 0.0102 
466.066, 0.0091 
466.433, 0.0089 
466.8, 0.0086 
467.167, 0.0097 
467.534, 0.0097 
467.901, 0.0097 
468.268, 0.0074 
468.635, 0.0111 
469.001, 0.0094 
469.368, 0.0099 
469.735, 0.0076 
470.101, 0.0097 
470.468, 0.0104 
470.834, 0.0095 
471.201, 0.0098 
471.567, 0.0095 
471.934, 0.0089 
472.3, 0.0076 
472.666, 0.0075 
473.032, 0.0092 
473.399, 0.0078 
473.765, 0.0079 
474.131, 0.0085 
474.497, 0.0080 
474.863, 0.0057 
475.229, 0.0082 
475.595, 0.0080 
475.961, 0.0077 
476.327, 0.0082 
476.693, 0.0089 
477.058, 0.0083 
477.424, 0.0078 
477.79, 0.0079 
478.156, 0.0077 
478.521, 0.0071 
478.887, 0.0087 
479.252, 0.0067 
479.618, 0.0075 
479.983, 0.0072 
480.348, 0.0067 
480.714, 0.0071 
481.079, 0.0078 
481.444, 0.0075 
481.81, 0.0085 
482.175, 0.0086 
482.54, 0.0076 
482.905, 0.0075 
483.27, 0.0084 
483.635, 0.0082 
484, 0.0068 
484.365, 0.0069 
484.73, 0.0060 
485.095, 0.0060 
485.459, 0.0067 
485.824, 0.0061 
486.189, 0.0063 
486.553, 0.0055 
486.918, 0.0066 
487.283, 0.0068 
487.647, 0.0083 
488.012, 0.0078 
488.376, 0.0057 
488.74, 0.0069 
489.105, 0.0066 
489.469, 0.0061 
489.833, 0.0066 
490.198, 0.0068 
490.562, 0.0056 
490.926, 0.0061 
491.29, 0.0073 
491.654, 0.0065 
492.018, 0.0062 
492.382, 0.0061 
492.746, 0.0066 
493.11, 0.0065 
493.474, 0.0067 
493.837, 0.0059 
494.201, 0.0058 
494.565, 0.0067 
494.928, 0.0051 
495.292, 0.0060 
495.656, 0.0055 
496.019, 0.0064 
496.383, 0.0061 
496.746, 0.0063 
497.109, 0.0057 
497.473, 0.0052 
497.836, 0.0057 
498.199, 0.0059 
498.563, 0.0054 
498.926, 0.0058 
499.289, 0.0057 
499.652, 0.0062 
500.015, 0.0058 
500.378, 0.0057 
500.741, 0.0060 
501.104, 0.0057 
501.467, 0.0066 
501.829, 0.0067 
502.192, 0.0051 
502.555, 0.0060 
502.918, 0.0068 
503.28, 0.0055 
503.643, 0.0056 
504.005, 0.0055 
504.368, 0.0050 
504.73, 0.0059 
505.093, 0.0055 
505.455, 0.0056 
505.817, 0.0059 
506.18, 0.0058 
506.542, 0.0052 
506.904, 0.0051 
507.266, 0.0064 
507.628, 0.0060 
507.991, 0.0048 
508.353, 0.0065 
508.715, 0.0057 
509.076, 0.0045 
509.438, 0.0057 
509.8, 0.0045 
510.162, 0.0066 
510.524, 0.0063 
510.885, 0.0065 
511.247, 0.0049 
511.609, 0.0057 
511.97, 0.0058 
512.332, 0.0049 
512.693, 0.0043 
513.055, 0.0063 
513.416, 0.0063 
513.778, 0.0053 
514.139, 0.0052 
514.5, 0.0061 
514.861, 0.0060 
515.223, 0.0051 
515.584, 0.0053 
515.945, 0.0051 
516.306, 0.0048 
516.667, 0.0045 
517.028, 0.0050 
517.389, 0.0053 
517.75, 0.0057 
518.11, 0.0055 
518.471, 0.0048 
518.832, 0.0056 
519.193, 0.0048 
519.553, 0.0052 
519.914, 0.0055 
520.274, 0.0058 
520.635, 0.0066 
520.995, 0.0061 
521.356, 0.0053 
521.716, 0.0054 
522.076, 0.0046 
522.437, 0.0052 
522.797, 0.0055 
523.157, 0.0058 
523.517, 0.0052 
523.877, 0.0054 
524.238, 0.0056 
524.598, 0.0045 
524.958, 0.0050 
525.317, 0.0061 
525.677, 0.0065 
526.037, 0.0057 
526.397, 0.0055 
526.757, 0.0053 
527.116, 0.0049 
527.476, 0.0057 
527.836, 0.0058 
528.195, 0.0058 
528.555, 0.0040 
528.914, 0.0050 
529.274, 0.0055 
529.633, 0.0060 
529.993, 0.0053 
530.352, 0.0058 
530.711, 0.0049 
531.07, 0.0056 
531.429, 0.0055 
531.789, 0.0049 
532.148, 0.0056 
532.507, 0.0053 
532.866, 0.0047 
533.225, 0.0057 
533.584, 0.0065 
533.942, 0.0045 
534.301, 0.0045 
534.66, 0.0046 
535.019, 0.0062 
535.377, 0.0055 
535.736, 0.0063 
536.095, 0.0052 
536.453, 0.0052 
536.812, 0.0059 
537.17, 0.0049 
537.528, 0.0052 
537.887, 0.0064 
538.245, 0.0056 
538.603, 0.0061 
538.962, 0.0065 
539.32, 0.0058 
539.678, 0.0060 
540.036, 0.0062 
540.394, 0.0061 
540.752, 0.0066 
541.11, 0.0066 
541.468, 0.0077 
541.826, 0.0071 
542.184, 0.0069 
542.541, 0.0065 
542.899, 0.0065 
543.257, 0.0075 
543.614, 0.0066 
543.972, 0.0077 
544.33, 0.0060 
544.687, 0.0073 
545.045, 0.0104 
545.402, 0.0135 
545.759, 0.0146 
546.117, 0.0122 
546.474, 0.0096 
546.831, 0.0086 
547.188, 0.0082 
547.546, 0.0074 
547.903, 0.0069 
548.26, 0.0062 
548.617, 0.0063 
548.974, 0.0059 
549.331, 0.0059 
549.687, 0.0063 
550.044, 0.0069 
550.401, 0.0061 
550.758, 0.0069 
551.114, 0.0070 
551.471, 0.0071 
551.828, 0.0059 
552.184, 0.0054 
552.541, 0.0066 
552.897, 0.0062 
553.254, 0.0055 
553.61, 0.0059 
553.966, 0.0069 
554.323, 0.0059 
554.679, 0.0050 
555.035, 0.0063 
555.391, 0.0053 
555.747, 0.0064 
556.103, 0.0057 
556.459, 0.0057 
556.815, 0.0062 
557.171, 0.0059 
557.527, 0.0066 
557.883, 0.0056 
558.239, 0.0066 
558.594, 0.0056 
558.95, 0.0056 
559.306, 0.0068 
559.661, 0.0060 
560.017, 0.0063 
560.372, 0.0062 
560.728, 0.0057 
561.083, 0.0064 
561.438, 0.0064 
561.794, 0.0061 
562.149, 0.0062 
562.504, 0.0063 
562.859, 0.0067 
563.215, 0.0055 
563.57, 0.0064 
563.925, 0.0057 
564.28, 0.0055 
564.635, 0.0069 
564.99, 0.0070 
565.344, 0.0057 
565.699, 0.0054 
566.054, 0.0057 
566.409, 0.0059 
566.763, 0.0070 
567.118, 0.0064 
567.473, 0.0073 
567.827, 0.0060 
568.182, 0.0070 
568.536, 0.0065 
568.891, 0.0058 
569.245, 0.0072 
569.599, 0.0061 
569.953, 0.0059 
570.308, 0.0061 
570.662, 0.0055 
571.016, 0.0070 
571.37, 0.0070 
571.724, 0.0068 
572.078, 0.0068 
572.432, 0.0072 
572.786, 0.0060 
573.14, 0.0064 
573.494, 0.0062 
573.847, 0.0065 
574.201, 0.0065 
574.555, 0.0057 
574.908, 0.0068 
575.262, 0.0074 
575.615, 0.0062 
575.969, 0.0082 
576.322, 0.0089 
576.676, 0.0084 
577.029, 0.0077 
577.382, 0.0075 
577.736, 0.0075 
578.089, 0.0081 
578.442, 0.0069 
578.795, 0.0087 
579.148, 0.0068 
579.501, 0.0075 
579.854, 0.0079 
580.207, 0.0077 
580.56, 0.0070 
580.913, 0.0071 
581.265, 0.0069 
581.618, 0.0080 
581.971, 0.0081 
582.324, 0.0073 
582.676, 0.0077 
583.029, 0.0074 
583.381, 0.0074 
583.734, 0.0076 
584.086, 0.0071 
584.438, 0.0075 
584.791, 0.0085 
585.143, 0.0087 
585.495, 0.0077 
585.847, 0.0081 
586.2, 0.0092 
586.552, 0.0082 
586.904, 0.0085 
587.256, 0.0085 
587.608, 0.0086 
587.959, 0.0096 
588.311, 0.0087 
588.663, 0.0091 
589.015, 0.0090 
589.367, 0.0091 
589.718, 0.0090 
590.07, 0.0091 
590.421, 0.0088 
590.773, 0.0095 
591.124, 0.0085 
591.476, 0.0093 
591.827, 0.0083 
592.179, 0.0105 
592.53, 0.0094 
592.881, 0.0089 
593.232, 0.0111 
593.584, 0.0106 
593.935, 0.0097 
594.286, 0.0097 
594.637, 0.0111 
594.988, 0.0113 
595.339, 0.0113 
595.689, 0.0104 
596.04, 0.0114 
596.391, 0.0114 
596.742, 0.0116 
597.092, 0.0119 
597.443, 0.0124 
597.794, 0.0133 
598.144, 0.0113 
598.495, 0.0126 
598.845, 0.0124 
599.196, 0.0139 
599.546, 0.0138 
599.896, 0.0148 
600.247, 0.0141 
600.597, 0.0141 
600.947, 0.0143 
601.297, 0.0154 
601.647, 0.0163 
601.997, 0.0152 
602.347, 0.0157 
602.697, 0.0178 
603.047, 0.0171 
603.397, 0.0170 
603.747, 0.0182 
604.096, 0.0195 
604.446, 0.0191 
604.796, 0.0212 
605.145, 0.0198 
605.495, 0.0215 
605.844, 0.0202 
606.194, 0.0215 
606.543, 0.0215 
606.893, 0.0219 
607.242, 0.0227 
607.591, 0.0245 
607.94, 0.0243 
608.29, 0.0254 
608.639, 0.0241 
608.988, 0.0265 
609.337, 0.0271 
609.686, 0.0267 
610.035, 0.0280 
610.384, 0.0306 
610.733, 0.0321 
611.081, 0.0337 
611.43, 0.0331 
611.779, 0.0350 
612.127, 0.0344 
612.476, 0.0364 
612.825, 0.0373 
613.173, 0.0368 
613.522, 0.0383 
613.87, 0.0418 
614.218, 0.0421 
614.567, 0.0427 
614.915, 0.0447 
615.263, 0.0452 
615.611, 0.0452 
615.96, 0.0470 
616.308, 0.0497 
616.656, 0.0523 
617.004, 0.0525 
617.352, 0.0546 
617.7, 0.0549 
618.047, 0.0586 
618.395, 0.0624 
618.743, 0.0636 
619.091, 0.0675 
619.438, 0.0689 
619.786, 0.0702 
620.134, 0.0724 
620.481, 0.0762 
620.829, 0.0774 
621.176, 0.0821 
621.523, 0.0845 
621.871, 0.0901 
622.218, 0.0883 
622.565, 0.0958 
622.912, 0.0961 
623.259, 0.1029 
623.607, 0.1031 
623.954, 0.1088 
624.301, 0.1092 
624.648, 0.1169 
624.994, 0.1200 
625.341, 0.1199 
625.688, 0.1264 
626.035, 0.1287 
626.382, 0.1307 
626.728, 0.1366 
627.075, 0.1341 
627.421, 0.1396 
627.768, 0.1423 
628.114, 0.1459 
628.461, 0.1459 
628.807, 0.1471 
629.154, 0.1479 
629.5, 0.1499 
629.846, 0.1481 
630.192, 0.1470 
630.538, 0.1442 
630.884, 0.1387 
631.231, 0.1378 
631.577, 0.1308 
631.922, 0.1256 
632.268, 0.1206 
632.614, 0.1159 
632.96, 0.1105 
633.306, 0.1013 
633.651, 0.0971 
633.997, 0.0902 
634.343, 0.0863 
634.688, 0.0789 
635.034, 0.0734 
635.379, 0.0680 
635.725, 0.0662 
636.07, 0.0600 
636.415, 0.0570 
636.761, 0.0534 
637.106, 0.0478 
637.451, 0.0485 
637.796, 0.0444 
638.141, 0.0406 
638.486, 0.0387 
638.831, 0.0375 
639.176, 0.0358 
639.521, 0.0323 
639.866, 0.0311 
640.211, 0.0305 
640.555, 0.0266 
640.9, 0.0266 
641.245, 0.0257 
641.589, 0.0250 
641.934, 0.0221 
642.278, 0.0219 
642.623, 0.0226 
642.967, 0.0211 
643.312, 0.0192 
643.656, 0.0197 
644, 0.0183 
644.344, 0.0188 
644.689, 0.0167 
645.033, 0.0161 
645.377, 0.0154 
645.721, 0.0152 
646.065, 0.0158 
646.409, 0.0139 
646.753, 0.0139 
647.096, 0.0139 
647.44, 0.0129 
647.784, 0.0134 
648.128, 0.0123 
648.471, 0.0110 
648.815, 0.0119 
649.158, 0.0111 
649.502, 0.0108 
649.845, 0.0095 
650.189, 0.0113 
650.532, 0.0097 
650.875, 0.0100 
651.218, 0.0104 
651.562, 0.0108 
651.905, 0.0097 
652.248, 0.0108 
652.591, 0.0105 
652.934, 0.0077 
653.277, 0.0088 
653.62, 0.0085 
653.963, 0.0089 
654.305, 0.0077 
654.648, 0.0103 
654.991, 0.0093 
655.334, 0.0093 
655.676, 0.0086 
656.019, 0.0074 
656.361, 0.0086 
656.704, 0.0095 
657.046, 0.0095 
657.389, 0.0085 
657.731, 0.0081 
658.073, 0.0090 
658.415, 0.0080 
658.757, 0.0086 
659.1, 0.0089 
659.442, 0.0078 
659.784, 0.0076 
660.126, 0.0077 
660.468, 0.0082 
660.809, 0.0083 
661.151, 0.0078 
661.493, 0.0093 
661.835, 0.0082 
662.177, 0.0083 
662.518, 0.0079 
662.86, 0.0088 
663.201, 0.0088 
663.543, 0.0079 
663.884, 0.0072 
664.226, 0.0088 
664.567, 0.0066 
664.908, 0.0079 
665.249, 0.0080 
665.591, 0.0067 
665.932, 0.0080 
666.273, 0.0078 
666.614, 0.0083 
666.955, 0.0088 
667.296, 0.0082 
667.637, 0.0062 
667.978, 0.0080 
668.318, 0.0081 
668.659, 0.0082 
669, 0.0086 
669.341, 0.0084 
669.681, 0.0079 
670.022, 0.0076 
670.362, 0.0087 
670.703, 0.0084 
671.043, 0.0086 
671.383, 0.0068 
671.724, 0.0079 
672.064, 0.0071 
672.404, 0.0087 
672.744, 0.0076 
673.085, 0.0093 
673.425, 0.0074 
673.765, 0.0078 
674.105, 0.0086 
674.444, 0.0078 
674.784, 0.0097 
675.124, 0.0098 
675.464, 0.0078 
675.804, 0.0078 
676.143, 0.0078 
676.483, 0.0069 
676.823, 0.0080 
677.162, 0.0089 
677.501, 0.0083 
677.841, 0.0092 
678.18, 0.0086 
678.52, 0.0077 
678.859, 0.0078 
679.198, 0.0071 
679.537, 0.0081 
679.876, 0.0086 
680.215, 0.0083 
680.555, 0.0090 
680.894, 0.0086 
681.232, 0.0084 
681.571, 0.0082 
681.91, 0.0087 
682.249, 0.0086 
682.588, 0.0087 
682.926, 0.0078 
683.265, 0.0091 
683.604, 0.0095 
683.942, 0.0090 
684.281, 0.0086 
684.619, 0.0071 
684.957, 0.0092 
685.296, 0.0075 
685.634, 0.0088 
685.972, 0.0098 
686.31, 0.0076 
686.649, 0.0093 
686.987, 0.0076 
687.325, 0.0078 
687.663, 0.0094 
688.001, 0.0074 
688.338, 0.0092 
688.676, 0.0072 
689.014, 0.0097 
689.352, 0.0088 
689.69, 0.0087 
690.027, 0.0089 
690.365, 0.0087 
690.702, 0.0087 
691.04, 0.0086 
691.377, 0.0101 
691.715, 0.0087 
692.052, 0.0089 
692.389, 0.0083 
692.726, 0.0074 
693.064, 0.0092 
693.401, 0.0087 
693.738, 0.0070 
694.075, 0.0084 
694.412, 0.0081 
694.749, 0.0068 
695.086, 0.0087 
695.423, 0.0088 
695.759, 0.0078 
696.096, 0.0083 
696.433, 0.0103 
696.769, 0.0091 
697.106, 0.0088 
697.443, 0.0075 
697.779, 0.0092 
698.116, 0.0104 
698.452, 0.0106 
698.788, 0.0091 
699.125, 0.0090 
699.461, 0.0079 
699.797, 0.0096 
700.133, 0.0104 
700.469, 0.0088 
700.805, 0.0101 
701.141, 0.0098 
701.477, 0.0084 
701.813, 0.0101 
702.149, 0.0106 
702.485, 0.0093 
702.82, 0.0078 
703.156, 0.0096 
703.492, 0.0074 
703.827, 0.0077 
704.163, 0.0082 
704.498, 0.0107 
704.834, 0.0101 
705.169, 0.0088 
705.505, 0.0097 
705.84, 0.0093 
706.175, 0.0101 
706.51, 0.0103 
706.845, 0.0099 
707.18, 0.0100 
707.515, 0.0107 
707.85, 0.0094 
708.185, 0.0103 
708.52, 0.0115 
708.855, 0.0115 
709.19, 0.0109 
709.525, 0.0086 
709.859, 0.0118 
710.194, 0.0116 
710.529, 0.0101 
710.863, 0.0098 
711.198, 0.0089 
711.532, 0.0110 
711.866, 0.0089 
712.201, 0.0120 
712.535, 0.0115 
712.869, 0.0124 
713.203, 0.0108 
713.537, 0.0119 
713.872, 0.0116 
714.206, 0.0105 
714.54, 0.0125 
714.873, 0.0103 
715.207, 0.0099 
715.541, 0.0118 
715.875, 0.0085 
716.209, 0.0111 
716.542, 0.0103 
716.876, 0.0110 
717.21, 0.0124 
717.543, 0.0119 
717.877, 0.0114 
718.21, 0.0116 
718.543, 0.0118 
718.877, 0.0108 
719.21, 0.0105 
719.543, 0.0117 
719.876, 0.0094 
720.209, 0.0116 
720.542, 0.0106 
720.875, 0.0105 
721.208, 0.0109 
721.541, 0.0110 
721.874, 0.0119 
722.207, 0.0116 
722.54, 0.0108 
722.872, 0.0100 
723.205, 0.0115 
723.538, 0.0105 
723.87, 0.0119 
724.203, 0.0125 
724.535, 0.0117 
724.868, 0.0118 
725.2, 0.0117 
725.532, 0.0137 
725.865, 0.0127 
726.197, 0.0128 
726.529, 0.0100 
726.861, 0.0118 
727.193, 0.0113 
727.525, 0.0099 
727.857, 0.0117 
728.189, 0.0109 
728.521, 0.0087 
728.853, 0.0134 
729.184, 0.0089 
729.516, 0.0161 
729.848, 0.0123 
730.179, 0.0133 
730.511, 0.0121 
730.842, 0.0118 
731.174, 0.0127 
731.505, 0.0111 
731.836, 0.0135 
732.168, 0.0117 
732.499, 0.0109 
732.83, 0.0121 
733.161, 0.0141 
733.492, 0.0121 
733.823, 0.0139 
734.154, 0.0140 
734.485, 0.0130 
734.816, 0.0131 
735.147, 0.0152 
735.478, 0.0119 
735.808, 0.0120 
736.139, 0.0135 
736.47, 0.0129 
736.8, 0.0116 
737.131, 0.0126 
737.461, 0.0117 
737.792, 0.0134 
738.122, 0.0136 
738.452, 0.0113 
738.782, 0.0109 
